MXYL_LOW_NOX
!P. F. Liu, N. Abdelmalki, H.-M. Hung, Y. Wang, W. H. Brune and S. T. Martin
!Ultraviolet and visible complex refractive indices of secondary organic 
!material produced by photooxidation of the aromatic compounds toluene and m-xylene
!Atmos. Chem. Phys., 15, 1435-1446, 2015
!www.atmos-chem-phys.net/15/1435/2015/
!doi:10.5194/acp-15-1435-2015
!
!Parameters for Cauchy's equation
! n(lambda(um)) = B + C /lambda**2 + D /lambda**4
!for  the wavelength-dependent real refractive index n of toluene- and m-xylene-derived SOMs 
!for several initial NO (ppm)
!A1 Toluene 0.0 1.505 7.57e-3 -1.17e-4
!A2 Toluene 2.5 1.514 6.87e-3 -1.16e-4
!A3 Toluene 5.0 1.513 9.07e-3 -1.72e-4
!A4 Toluene 10.0 1.519 1.03e-2 -2.91e-4
!B1 m-Xylene 0.0 1.499 4.59e-3 9.84e-5
!B2 m-Xylene 2.5 1.500 5.53e-3 3.63e-5
!B3 m-Xylene 5.0 1.501 7.77e-3 1.45e-5
!B4 m-Xylene 10.0 1.510 1.07e-2 -2.60e-4
!
!Notes: Below 280 nm, the imaginary part, k, is extrapolted using the angstrom exponent derived from values at 275 and
!280 nm. Above 580 nm, k is set to value at 560 nm, the angstrom exponent is set to zero.
!
!
!Wvl  MXy_B1 MXy_B1 
!(um)     m      k    
0.150  1.6537  0.1080 
0.210  1.6537  0.1080 
0.220  1.6358  0.0862 
0.230  1.6209  0.0694 
0.240  1.6083  0.0565 
0.250  1.5976  0.0463 
0.260  1.5884  0.0383 
0.270  1.5805  0.0319 
0.280  1.5736  0.0267 
0.285  1.5704  0.0245 
0.290  1.5675  0.0215 
0.295  1.5647  0.0179 
0.300  1.5621  0.0143 
0.305  1.5597  0.0115 
0.310  1.5574  0.0095 
0.315  1.5553  0.0081 
0.320  1.5532  0.0071 
0.325  1.5513  0.0063 
0.330  1.5494  0.0056 
0.335  1.5477  0.0049 
0.340  1.5461  0.0044 
0.345  1.5445  0.0038 
0.350  1.5430  0.0034 
0.355  1.5416  0.0030 
0.360  1.5403  0.0027 
0.365  1.5390  0.0023 
0.370  1.5378  0.0020 
0.375  1.5366  0.0018 
0.380  1.5355  0.0016 
0.385  1.5344  0.0014 
0.390  1.5334  0.0012 
0.395  1.5325  0.0010 
0.400  1.5315  0.0009 
0.405  1.5306  0.0008 
0.410  1.5298  0.0007 
0.415  1.5290  0.0006 
0.420  1.5282  0.0006 
0.425  1.5274  0.0005 
0.430  1.5267  0.0005 
0.435  1.5260  0.0005 
0.440  1.5253  0.0004 
0.445  1.5247  0.0004 
0.450  1.5241  0.0004 
0.455  1.5235  0.0003 
0.460  1.5229  0.0003 
0.465  1.5223  0.0003 
0.470  1.5218  0.0002 
0.475  1.5213  0.0002 
0.480  1.5208  0.0002 
0.485  1.5203  0.0002 
0.490  1.5198  0.0002 
0.495  1.5194  0.0002 
0.500  1.5189  0.0001 
0.505  1.5185  0.0001 
0.510  1.5181  0.0001 
0.515  1.5177  0.0001 
0.520  1.5173  0.0001 
0.525  1.5169  0.0001 
0.530  1.5166  0.0001 
0.535  1.5162  0.0001 
0.540  1.5159  0.0001 
0.545  1.5156  0.0001 
0.550  1.5152  0.0001 
0.555  1.5149  0.0001 
0.560  1.5146  0.0001 
0.565  1.5143  0.0001 
0.570  1.5141  0.0001 
0.575  1.5138  0.0001 
0.580  1.5135  0.0001 
0.585  1.5133  0.0001 
0.590  1.5130  0.0001 
0.595  1.5128  0.0001 
0.600  1.5125  0.0001 
0.605  1.5123  0.0001 
0.610  1.5120  0.0001 
0.615  1.5118  0.0001 
0.620  1.5116  0.0001 
0.625  1.5114  0.0001 
0.630  1.5112  0.0001 
0.635  1.5110  0.0001 
0.640  1.5108  0.0001 
0.645  1.5106  0.0001 
0.650  1.5104  0.0001 
0.655  1.5102  0.0001 
0.660  1.5101  0.0001 
0.665  1.5099  0.0001 
0.670  1.5097  0.0001 
0.675  1.5095  0.0001 
0.680  1.5094  0.0001 
0.685  1.5092  0.0001 
0.690  1.5091  0.0001 
0.695  1.5089  0.0001 
0.700  1.5088  0.0001 
0.705  1.5086  0.0001 
0.710  1.5085  0.0001 
0.715  1.5084  0.0001 
0.720  1.5082  0.0001 
0.725  1.5081  0.0001 
0.730  1.5080  0.0001 
0.735  1.5078  0.0001 
0.740  1.5077  0.0001 
0.745  1.5076  0.0001 
0.750  1.5075  0.0001 
0.755  1.5074  0.0001 
0.760  1.5072  0.0001 
0.765  1.5071  0.0001 
0.770  1.5070  0.0001 
0.775  1.5069  0.0001 
0.780  1.5068  0.0001 
0.785  1.5067  0.0001 
0.790  1.5066  0.0001 
0.795  1.5065  0.0001 
0.800  1.5064  0.0001 
0.805  1.5063  0.0001 
0.810  1.5062  0.0001 
0.815  1.5061  0.0001 
0.820  1.5060  0.0001 
0.825  1.5060  0.0001 
0.830  1.5059  0.0001 
0.835  1.5058  0.0001 
0.840  1.5057  0.0001 
0.845  1.5056  0.0001 
0.850  1.5055  0.0001 
0.855  1.5055  0.0001 
0.860  1.5054  0.0001 
0.865  1.5053  0.0001 
0.870  1.5052  0.0001 
0.875  1.5052  0.0001 
0.880  1.5051  0.0001 
0.885  1.5050  0.0001 
0.890  1.5050  0.0001 
0.895  1.5049  0.0001 
0.900  1.5048  0.0001 
0.905  1.5048  0.0001 
0.910  1.5047  0.0001 
0.915  1.5046  0.0001 
0.920  1.5046  0.0001 
0.925  1.5045  0.0001 
0.930  1.5044  0.0001 
0.935  1.5044  0.0001 
0.940  1.5043  0.0001 
0.945  1.5043  0.0001 
0.950  1.5042  0.0001 
0.955  1.5042  0.0001 
0.960  1.5041  0.0001 
0.965  1.5040  0.0001 
0.970  1.5040  0.0001 
0.975  1.5039  0.0001 
                    
                    
                    
                    
                    
                    
                    
                    
                    
                    
                    
                    
                    
                    
                    
                    
                    
                    
                    
                    
                    
                    
                    
                    
                    
                    
                    

























































































































