HNO3_RADM88
! Nitric Acid Photolysis (HNO3)
! HNO3 + hv -> OH + NO2    
! Abs CS from Molina and Molina [1981]
! QY assumed to be unity over UV absorption range
! format:  wl, abs_cs, qy
Beginning
! With FAC, units are (cm^2/molecule)
FAC=1.0
 190.476  1.370E-17  1.000E+00
 192.308  1.220E-17  1.000E+00
 194.175  1.040E-17  1.000E+00
 196.078  8.540E-18  1.000E+00
 198.020  6.660E-18  1.000E+00
 200.000  5.120E-18  1.000E+00
 202.020  3.600E-18  1.000E+00
 204.082  2.480E-18  1.000E+00
 206.186  1.670E-18  1.000E+00
 208.333  9.930E-19  1.000E+00
 210.526  6.640E-19  1.000E+00
 212.766  3.780E-19  1.000E+00
 215.054  2.570E-19  1.000E+00
 217.391  1.650E-19  1.000E+00
 219.780  1.220E-19  1.000E+00
 222.222  9.100E-20  1.000E+00
 224.719  7.260E-20  1.000E+00
 227.273  5.770E-20  1.000E+00
 229.885  4.660E-20  1.000E+00
 232.558  3.680E-20  1.000E+00
 235.294  3.000E-20  1.000E+00
 238.095  2.480E-20  1.000E+00
 240.964  2.200E-20  1.000E+00
 243.902  2.030E-20  1.000E+00
 246.914  1.920E-20  1.000E+00
 250.000  1.900E-20  1.000E+00
 253.165  1.890E-20  1.000E+00
 256.410  1.870E-20  1.000E+00
 259.740  1.770E-20  1.000E+00
 263.158  1.670E-20  1.000E+00
 266.667  1.570E-20  1.000E+00
 270.270  1.400E-20  1.000E+00
 273.973  1.210E-20  1.000E+00
 277.778  1.010E-20  1.000E+00
 281.690  8.130E-21  1.000E+00
 285.714  6.170E-21  1.000E+00
 289.855  4.440E-21  1.000E+00
 294.118  2.950E-21  1.000E+00
 298.500  2.080E-21  1.000E+00
 302.500  1.740E-21  1.000E+00
 303.500  1.550E-21  1.000E+00
 304.500  1.390E-21  1.000E+00
 305.500  1.240E-21  1.000E+00
 306.500  1.090E-21  1.000E+00
 307.500  9.350E-22  1.000E+00
 308.500  7.850E-22  1.000E+00
 309.500  6.710E-22  1.000E+00
 310.500  5.930E-22  1.000E+00
 311.500  5.150E-22  1.000E+00
 312.500  4.370E-22  1.000E+00
 313.500  3.300E-22  1.000E+00
 314.500  2.000E-22  1.000E+00
 317.500  8.500E-23  1.000E+00
 322.500  3.500E-23  1.000E+00
 327.500  0.000E+00  1.000E+00

