HNO4_RADM88
! Pernitric Acid Photolysis (HNO4)
! HNO4 + hv -> HO2 + NO2  
! Abs CS from Molina and Molina [1981];
! QY assumed to be unity over UV absorption range
! format:  wl, abs_cs, qy
Beginning
! With FAC, units are (cm^2/molecule)
FAC=1.0
 188.679  1.000E-17  1.000E+00
 190.476  9.000E-18  1.000E+00
 192.308  7.600E-18  1.000E+00
 194.175  6.600E-18  1.000E+00
 196.078  5.600E-18  1.000E+00
 198.020  4.800E-18  1.000E+00
 200.000  4.000E-18  1.000E+00
 202.020  3.400E-18  1.000E+00
 204.082  2.900E-18  1.000E+00
 206.186  2.400E-18  1.000E+00
 208.333  2.100E-18  1.000E+00
 210.526  1.700E-18  1.000E+00
 212.766  1.500E-18  1.000E+00
 215.054  1.300E-18  1.000E+00
 217.391  1.100E-18  1.000E+00
 219.780  1.000E-18  1.000E+00
 222.222  9.000E-19  1.000E+00
 224.719  8.200E-19  1.000E+00
 227.273  7.500E-19  1.000E+00
 229.885  6.800E-19  1.000E+00
 232.558  6.500E-19  1.000E+00
 235.294  6.000E-19  1.000E+00
 238.095  5.500E-19  1.000E+00
 240.964  5.000E-19  1.000E+00
 243.902  4.400E-19  1.000E+00
 246.914  4.000E-19  1.000E+00
 250.000  3.500E-19  1.000E+00
 253.165  3.000E-19  1.000E+00
 256.410  2.700E-19  1.000E+00
 259.740  2.350E-19  1.000E+00
 263.158  2.000E-19  1.000E+00
 266.667  1.800E-19  1.000E+00
 270.270  1.550E-19  1.000E+00
 273.973  1.250E-19  1.000E+00
 277.778  9.000E-20  1.000E+00
 281.690  6.500E-20  1.000E+00
 285.714  4.500E-20  1.000E+00
 289.855  3.100E-20  1.000E+00
 294.118  2.100E-20  1.000E+00
 298.500  1.350E-20  1.000E+00
 302.500  1.100E-20  1.000E+00
 303.500  1.000E-20  1.000E+00
 304.500  9.000E-21  1.000E+00
 305.500  8.500E-21  1.000E+00
 306.500  7.700E-21  1.000E+00
 307.500  7.000E-21  1.000E+00
 308.500  6.600E-21  1.000E+00
 309.500  6.000E-21  1.000E+00
 310.500  5.500E-21  1.000E+00
 311.500  5.100E-21  1.000E+00
 312.500  4.500E-21  1.000E+00
 313.500  4.200E-21  1.000E+00
 314.500  3.300E-21  1.000E+00
 317.500  2.400E-21  1.000E+00
 322.500  1.500E-21  1.000E+00
 327.500  1.000E-21  1.000E+00
 332.500  0.000E+00  1.000E+00

