MHP_RADM88
! Methyl Hydrogen Peroxide Photolysis (MHP)
! CH3OOH + hv -> products            
! Abs CS based on Molina and Arguello [1979];
! QY assumed to be unity over UV absorption range
! format:  wl, abs_cs, qy
Beginning
! With FAC, units are (cm^2/molecule)
FAC=1.0
 210.526  3.495E-19  1.000E+00
 212.766  3.144E-19  1.000E+00
 215.054  2.786E-19  1.000E+00
 217.391  2.419E-19  1.000E+00
 219.780  2.120E-19  1.000E+00
 222.222  1.919E-19  1.000E+00
 224.719  1.714E-19  1.000E+00
 227.273  1.505E-19  1.000E+00
 229.885  1.328E-19  1.000E+00
 232.558  1.190E-19  1.000E+00
 235.294  1.049E-19  1.000E+00
 238.095  9.074E-20  1.000E+00
 240.964  8.070E-20  1.000E+00
 243.902  7.178E-20  1.000E+00
 246.914  6.263E-20  1.000E+00
 250.000  5.484E-20  1.000E+00
 253.165  4.843E-20  1.000E+00
 256.410  4.185E-20  1.000E+00
 259.740  3.612E-20  1.000E+00
 263.158  3.161E-20  1.000E+00
 266.667  2.699E-20  1.000E+00
 270.270  2.288E-20  1.000E+00
 273.973  1.912E-20  1.000E+00
 277.778  1.541E-20  1.000E+00
 281.690  1.278E-20  1.000E+00
 285.714  1.033E-20  1.000E+00
 289.855  8.365E-21  1.000E+00
 294.118  6.981E-21  1.000E+00
 298.500  5.702E-21  1.000E+00
 302.500  5.080E-21  1.000E+00
 303.500  4.840E-21  1.000E+00
 304.500  4.600E-21  1.000E+00
 305.500  4.360E-21  1.000E+00
 306.500  4.120E-21  1.000E+00
 307.500  3.880E-21  1.000E+00
 308.500  3.640E-21  1.000E+00
 309.500  3.411E-21  1.000E+00
 310.500  3.250E-21  1.000E+00
 311.500  3.100E-21  1.000E+00
 312.500  2.950E-21  1.000E+00
 313.500  2.800E-21  1.000E+00
 314.500  2.500E-21  1.000E+00
 317.500  1.944E-21  1.000E+00
 322.500  1.500E-21  1.000E+00
 327.500  1.119E-21  1.000E+00
 332.500  8.500E-22  1.000E+00
 337.500  6.187E-22  1.000E+00
 342.500  5.000E-22  1.000E+00
 347.500  3.875E-22  1.000E+00
 352.500  2.000E-22  1.000E+00
 357.500  0.000E+00  1.000E+00

