O3O1D_NASA94
! Ozone Photolysis to O1D (O3O1D)
! O3 + hv -> O2 + O(1D) 
! Taken from NASA (1994);  Absorption CS is at 273 K;  QY is at 298 K;
! WMO (1988) data used for wl .ge. 362.5 nm
Beginning
! With FAC, units are (cm^2/molecule)
FAC=1.0E-20
 175.439    81.1      0.9
 176.991    79.9      0.9
 178.571    78.6      0.9
 180.180    76.3      0.9
 181.818    72.9      0.9
 183.486    68.8      0.9
 185.185    62.2      0.9
 186.916    57.6      0.9
 188.679    52.6      0.9
 190.476    47.6      0.9
 192.308    42.8      0.9
 194.175    38.3      0.9
 196.078    34.7      0.9
 198.020    32.3      0.9
 200.000    31.4      0.9
 202.020    32.6      0.9
 204.082    36.4      0.9
 206.186    43.4      0.9
 208.333    54.2      0.9
 210.526    69.9      0.9
 212.766    92.1      0.9
 215.054   119.0      0.9
 217.391   155.0      0.9
 219.780   199.0      0.9
 222.222   256.0      0.9
 224.719   323.0      0.9
 227.273   400.0      0.9
 229.885   483.0      0.9
 232.558   579.0      0.9
 235.294   686.0      0.9
 238.095   797.0      0.9
 240.964   900.0      0.9
 243.902  1000.0      0.9
 246.914  1080.0      0.9
 250.000  1130.0      0.9
 253.165  1150.0      0.9
 256.410  1120.0      0.9
 259.740  1060.0      0.9
 263.158   965.0      0.9
 266.667   834.0      0.9
 270.270   692.0      0.9
 273.973   542.0      0.9
 277.778   402.0      0.9
 281.690   277.0      0.9
 285.714   179.0      0.9
 289.855   109.0      0.9483
 294.118    62.4      0.95
 298.507    34.3      0.95
 303.030    18.5      0.92838
 307.692     9.8      0.51807
 312.500     5.01     0.06506
 317.500     2.49     0.00165
 322.500     1.2      0.0
 327.500     0.617    0.0
 332.500     0.274    0.0
 337.500     0.117    0.0
 342.500     0.0588   0.0
 347.500     0.0266   0.0
 352.500     0.0109   0.0
 357.500     0.00549  0.0
 362.500     0.0      0.0
 367.500     0.0      0.0
 372.500     0.0      0.0
 377.500     0.0      0.0
 382.500     0.0      0.0
 387.500     0.0      0.0
 392.500     0.0      0.0
 397.500     0.0      0.0
 402.500     0.0      0.0
 407.500     0.00291  0.0
 412.500     0.00314  0.0
 417.500     0.00399  0.0
 422.500     0.00654  0.0
 427.500     0.00683  0.0
 432.500     0.00866  0.0
 437.500     0.0125   0.0
 442.500     0.0149   0.0
 447.500     0.0171   0.0
 452.500     0.0212   0.0
 457.500     0.0357   0.0
 462.500     0.0368   0.0
 467.500     0.0406   0.0
 472.500     0.0489   0.0
 477.500     0.0711   0.0
 482.500     0.0843   0.0
 487.500     0.0828   0.0
 492.500     0.0909   0.0
 497.500     0.122    0.0
 502.500     0.162    0.0
 507.500     0.158    0.0
 512.500     0.16     0.0
 517.500     0.178    0.0
 522.500     0.207    0.0
 527.500     0.255    0.0
 532.500     0.274    0.0
 537.500     0.288    0.0
 542.500     0.307    0.0
 547.500     0.317    0.0
 552.500     0.336    0.0
 557.500     0.388    0.0
 562.500     0.431    0.0
 567.500     0.467    0.0
 572.500     0.475    0.0
 577.500     0.455    0.0
 582.500     0.435    0.0
 587.500     0.442    0.0
 592.500     0.461    0.0
 597.500     0.489    0.0
 602.500     0.484    0.0
 607.500     0.454    0.0
 612.500     0.424    0.0
 617.500     0.39     0.0
 622.500     0.36     0.0
 627.500     0.343    0.0
 632.500     0.317    0.0
 637.500     0.274    0.0
 642.500     0.261    0.0
 647.500     0.242    0.0
 652.500     0.22     0.0
 657.500     0.202    0.0
 662.500     0.185    0.0
 667.500     0.167    0.0
 672.500     0.154    0.0
 677.500     0.142    0.0
 682.500     0.125    0.0
 687.500     0.112    0.0
 692.500     0.102    0.0
 697.500     0.092    0.0
 702.500     0.084    0.0
 707.500     0.077    0.0
 712.500     0.069    0.0
 717.500     0.063    0.0
 722.500     0.057    0.0
 727.500     0.0525   0.0
 732.500     0.0475   0.0
 737.500     0.0447   0.0
