HONO-06         
! HONO + HV = HO. + NO                                                           
! NASA (2006) recommended absorption cross sections. No recommendation on quantum
! IUPAC (2005) recommendation (Data Sheet PNOx1, July, 2001) recommends unit quan
! (IUPAC recommended absorption cross sections are low resolution, so NASA values
!                                                                                
Points (the mechanism evaluated with this format)                                
! With FAC, units are (cm^2/molecule)                                            
FAC=1.0                                                                          
270.0 3.700E-20 1.0000
272.0 3.000E-20 1.0000
274.0 2.500E-20 1.0000
296.0 3.260E-21 1.0000
297.0 5.650E-21 1.0000
298.0 5.170E-21 1.0000
299.0 4.290E-21 1.0000
300.0 6.170E-21 1.0000
301.0 6.900E-21 1.0000
302.0 5.790E-21 1.0000
303.0 9.250E-21 1.0000
304.0 1.040E-20 1.0000
305.0 1.570E-20 1.0000
306.0 1.290E-20 1.0000
307.0 9.160E-21 1.0000
308.0 1.450E-20 1.0000
309.0 2.010E-20 1.0000
310.0 1.510E-20 1.0000
311.0 2.070E-20 1.0000
312.0 2.420E-20 1.0000
313.0 2.250E-20 1.0000
314.0 3.350E-20 1.0000
315.0 2.540E-20 1.0000
316.0 1.610E-20 1.0000
317.0 3.210E-20 1.0000
318.0 4.490E-20 1.0000
319.0 3.190E-20 1.0000
320.0 4.660E-20 1.0000
321.0 5.960E-20 1.0000
322.0 4.050E-20 1.0000
323.0 4.560E-20 1.0000
324.0 5.890E-20 1.0000
325.0 4.050E-20 1.0000
326.0 2.650E-20 1.0000
326.5 3.550E-20 1.0000
327.0 6.440E-20 1.0000
327.5 1.026E-19 1.0000
328.0 9.220E-20 1.0000
328.5 6.380E-20 1.0000
329.0 5.200E-20 1.0000
329.5 6.120E-20 1.0000
330.0 9.920E-20 1.0000
330.5 1.506E-19 1.0000
331.0 1.432E-19 1.0000
331.5 9.880E-20 1.0000
332.0 6.940E-20 1.0000
332.5 6.000E-20 1.0000
333.0 6.310E-20 1.0000
333.5 7.110E-20 1.0000
334.0 8.350E-20 1.0000
334.5 8.370E-20 1.0000
335.0 7.710E-20 1.0000
335.5 6.550E-20 1.0000
336.0 5.330E-20 1.0000
336.5 4.360E-20 1.0000
337.0 4.230E-20 1.0000
337.5 5.130E-20 1.0000
338.0 9.380E-20 1.0000
338.5 1.652E-19 1.0000
339.0 1.432E-19 1.0000
339.5 9.960E-20 1.0000
340.0 7.790E-20 1.0000
340.5 8.510E-20 1.0000
341.0 1.613E-19 1.0000
341.5 3.152E-19 1.0000
342.0 2.940E-19 1.0000
342.5 1.847E-19 1.0000
343.0 1.143E-19 1.0000
343.5 8.290E-20 1.0000
344.0 7.590E-20 1.0000
344.5 8.180E-20 1.0000
345.0 8.770E-20 1.0000
345.5 9.100E-20 1.0000
346.0 9.640E-20 1.0000
346.5 8.870E-20 1.0000
347.0 7.800E-20 1.0000
347.5 7.060E-20 1.0000
348.0 6.630E-20 1.0000
348.5 6.260E-20 1.0000
349.0 6.000E-20 1.0000
349.5 6.470E-20 1.0000
350.0 9.060E-20 1.0000
350.5 1.495E-19 1.0000
351.0 1.694E-19 1.0000
351.5 1.407E-19 1.0000
352.0 1.242E-19 1.0000
352.5 1.281E-19 1.0000
353.0 1.634E-19 1.0000
353.5 2.849E-19 1.0000
354.0 4.873E-19 1.0000
354.5 4.434E-19 1.0000
355.0 2.764E-19 1.0000
355.5 1.640E-19 1.0000
356.0 1.113E-19 1.0000
356.5 9.350E-20 1.0000
357.0 9.450E-20 1.0000
357.5 1.008E-19 1.0000
358.0 9.840E-20 1.0000
358.5 9.020E-20 1.0000
359.0 8.370E-20 1.0000
359.5 7.670E-20 1.0000
360.0 6.870E-20 1.0000
360.5 6.320E-20 1.0000
361.0 6.050E-20 1.0000
361.5 5.950E-20 1.0000
362.0 5.980E-20 1.0000
362.5 6.350E-20 1.0000
363.0 7.390E-20 1.0000
363.5 9.220E-20 1.0000
364.0 1.149E-19 1.0000
364.5 1.271E-19 1.0000
365.0 1.282E-19 1.0000
365.5 1.319E-19 1.0000
366.0 1.484E-19 1.0000
366.5 1.843E-19 1.0000
367.0 2.508E-19 1.0000
367.5 3.518E-19 1.0000
368.0 4.356E-19 1.0000
368.5 4.137E-19 1.0000
369.0 3.145E-19 1.0000
369.5 2.172E-19 1.0000
369.9 1.505E-19 1.0000
370.1 9.490E-20 1.0000
372.0 7.960E-20 1.0000
373.0 6.300E-20 1.0000
374.0 4.590E-20 1.0000
375.0 3.550E-20 1.0000
376.0 3.360E-20 1.0000
377.0 3.660E-20 1.0000
378.0 4.330E-20 1.0000
379.0 5.660E-20 1.0000
380.0 7.210E-20 1.0000
381.0 9.130E-20 1.0000
382.0 1.244E-19 1.0000
383.0 1.703E-19 1.0000
384.0 1.947E-19 1.0000
385.0 1.609E-19 1.0000
386.0 1.052E-19 1.0000
387.0 6.590E-20 1.0000
388.0 4.300E-20 1.0000
389.0 2.810E-20 1.0000
390.0 1.710E-20 1.0000
391.0 9.920E-21 1.0000
392.0 7.310E-21 1.0000
393.0 5.970E-21 1.0000
394.0 5.280E-21 1.0000
395.0 4.030E-21 1.0000
396.0 2.370E-21 1.0000
397.0 7.100E-22 1.0000
398.0 0.000E+00 1.0000
